Waypoint X/nm Y/nm
1 -25.1181 -9.58382
2 -3.54459 -9.82249
3 9.400057 -4.56424
4 37.15431 -7.71921
5 27.86376 -0.46858
6 21.62711 4.749043
7 12.2804 7.080843
8 16.71358 25.03412
9 37.18331 25.40336
10 18.97724 48.98728
11 14.78013 45.59309
12 0.413243 10.69053
13 3.482661 26.4183
14 -2.8865 27.61884
15 -1.49533 34.78966
16 17.98482 30.29026
17 13.23665 39.31995
18 4.852915 33.64027
19 11.41748 31.96257
20 12.77654 31.61441
21 -73.7783 23.20169
22 -80.9047 -3.7497
23 -66.1924 -35.1029
24 -38.3272 -9.21472
25 -7.10887 69.44526
26 -2.01051 48.73146
27 36.89868 114.7589
28 22.77517 83.11779
29 27.57085 56.44991
30 59.68201 112.6479
31 51.4353 76.41337
32 79.98666 99.19068
33 73.36356 56.17081
34 49.10118 44.37985
35 53.4005 -5.62612
36 42.73805 -19.366
37 -7.86294 74.66501
38 -104.424 59.22219
39 -112.075 8.056129
40 -89.2992 -56.5735